T F 6    3    2    0    6    6    6    6    6    6    1    0    0   0.000   0.00
    1    1    1    0    0    0  23.00000   0.00000   0.00000   0.00000   0.00000
 -99.000 -99.000 -99.000
 -99.00000 -99.00000 -99.00000  1.416445  0.000736 ! H2O & O3 COLUMNS [GM/CM2]
   361976 U S STANDARD   
   0.00000 100.00000  20.00000 106.31252   0.32202   0.00000    0        0.00000
    0    0    1    0
   0.00000   0.00000   0.00000   0.00000   0.00000   0.00000   0.00000   0.00000
    2050.0    2100.0       1.0       1.0NW              
    0   0    0.000  0    0.000  0    1.000
    FREQ  TOT_TRANS  PTH_THRML  THRML_SCT  SURF_EMIS   SOL_SCAT  SING_SCAT  GRND_RFLT  DRCT_RFLT  TOTAL_RAD  REF_SOL  SOL@OBS   DEPTH DIR_EM    TOA_SUN BBODY_T[K]
 2050.00 0.74772996 5.6037E-08 0.0000E+00 0.0000E+00 1.1042E-09 1.1042E-09 0.0000E+00 0.0000E+00 5.7141E-08 7.20E-07 7.35E-07   0.291 1.0000 9.6338E-07    243.796
 2051.00 0.59794545 9.6305E-08 0.0000E+00 0.0000E+00 8.8735E-10 8.8735E-10 0.0000E+00 0.0000E+00 9.7192E-08 5.76E-07 5.92E-07   0.514 1.0000 9.6265E-07    255.083
 2052.00 0.51984328 1.0985E-07 0.0000E+00 0.0000E+00 7.7595E-10 7.7595E-10 0.0000E+00 0.0000E+00 1.1062E-07 5.01E-07 5.18E-07   0.654 1.0000 9.6431E-07    258.063
 2053.00 0.69839722 7.2629E-08 0.0000E+00 0.0000E+00 1.0320E-09 1.0320E-09 0.0000E+00 0.0000E+00 7.3661E-08 6.72E-07 6.87E-07   0.359 1.0000 9.6276E-07    249.295
 2054.00 0.49561968 1.2078E-07 0.0000E+00 0.0000E+00 7.4496E-10 7.4496E-10 0.0000E+00 0.0000E+00 1.2153E-07 4.78E-07 5.00E-07   0.702 1.0000 9.6369E-07    260.387
 2055.00 0.48340866 1.1830E-07 0.0000E+00 0.0000E+00 7.2510E-10 7.2510E-10 0.0000E+00 0.0000E+00 1.1903E-07 4.69E-07 4.83E-07   0.727 1.0000 9.6938E-07    260.004
 2056.00 0.75664473 5.2248E-08 0.0000E+00 0.0000E+00 1.1272E-09 1.1272E-09 0.0000E+00 0.0000E+00 5.3375E-08 7.37E-07 7.47E-07   0.279 1.0000 9.7361E-07    242.964
 2057.00 0.50422633 1.1205E-07 0.0000E+00 0.0000E+00 7.5491E-10 7.5491E-10 0.0000E+00 0.0000E+00 1.1280E-07 4.89E-07 5.02E-07   0.685 1.0000 9.6927E-07    258.967
 2058.00 0.47290874 1.2078E-07 0.0000E+00 0.0000E+00 7.0715E-10 7.0715E-10 0.0000E+00 0.0000E+00 1.2148E-07 4.58E-07 4.70E-07   0.749 1.0000 9.6927E-07    260.752
 2059.00 0.57613623 1.0150E-07 0.0000E+00 0.0000E+00 8.7008E-10 8.7008E-10 0.0000E+00 0.0000E+00 1.0237E-07 5.63E-07 5.80E-07   0.551 1.0000 9.7630E-07    256.972
 2060.00 0.12612602 2.5343E-07 0.0000E+00 0.0000E+00 1.9641E-10 1.9641E-10 0.0000E+00 0.0000E+00 2.5362E-07 1.23E-07 1.33E-07   2.070 1.0000 9.7434E-07    279.019
 2061.00 0.21106109 2.1659E-07 0.0000E+00 0.0000E+00 3.2368E-10 3.2368E-10 0.0000E+00 0.0000E+00 2.1691E-07 2.05E-07 2.18E-07   1.556 1.0000 9.7289E-07    275.068
 2062.00 0.58822435 9.3635E-08 0.0000E+00 0.0000E+00 8.8661E-10 8.8661E-10 0.0000E+00 0.0000E+00 9.4522E-08 5.74E-07 5.90E-07   0.531 1.0000 9.7506E-07    255.482
 2063.00 0.33691365 1.5865E-07 0.0000E+00 0.0000E+00 5.1563E-10 5.1563E-10 0.0000E+00 0.0000E+00 1.5916E-07 3.30E-07 3.45E-07   1.088 1.0000 9.7816E-07    267.579
 2064.00 0.16373603 2.3252E-07 0.0000E+00 0.0000E+00 2.5857E-10 2.5857E-10 0.0000E+00 0.0000E+00 2.3278E-07 1.60E-07 1.77E-07   1.809 1.0000 9.7785E-07    277.172
 2065.00 0.00299741 3.2478E-07 0.0000E+00 0.0000E+00 5.4745E-12 5.4745E-12 0.0000E+00 0.0000E+00 3.2479E-07 2.94E-09 4.21E-09   5.810 1.0000 9.7951E-07    286.163
 2066.00 0.02205312 3.0216E-07 0.0000E+00 0.0000E+00 3.7612E-11 3.7612E-11 0.0000E+00 0.0000E+00 3.0220E-07 2.17E-08 2.72E-08   3.814 1.0000 9.8271E-07    284.288
 2067.00 0.46801630 1.2800E-07 0.0000E+00 0.0000E+00 7.2279E-10 7.2279E-10 0.0000E+00 0.0000E+00 1.2872E-07 4.60E-07 4.86E-07   0.759 1.0000 9.8199E-07    262.929
 2068.00 0.50274199 1.1111E-07 0.0000E+00 0.0000E+00 7.6859E-10 7.6859E-10 0.0000E+00 0.0000E+00 1.1188E-07 4.95E-07 5.11E-07   0.688 1.0000 9.8437E-07    259.803
 2069.00 0.41365895 1.1427E-07 0.0000E+00 0.0000E+00 6.3734E-10 6.3734E-10 0.0000E+00 0.0000E+00 1.1490E-07 4.07E-07 4.23E-07   0.883 1.0000 9.8344E-07    260.501
 2070.00 0.69606835 5.3782E-08 0.0000E+00 0.0000E+00 1.0624E-09 1.0624E-09 0.0000E+00 0.0000E+00 5.4845E-08 6.86E-07 7.01E-07   0.362 1.0000 9.8551E-07    244.756
 2071.00 0.54536802 8.0558E-08 0.0000E+00 0.0000E+00 8.2922E-10 8.2922E-10 0.0000E+00 0.0000E+00 8.1388E-08 5.34E-07 5.47E-07   0.606 1.0000 9.7971E-07    253.052
 2072.00 0.49001530 9.4620E-08 0.0000E+00 0.0000E+00 7.5594E-10 7.5594E-10 0.0000E+00 0.0000E+00 9.5376E-08 4.82E-07 5.01E-07   0.713 1.0000 9.8447E-07    256.599
 2073.00 0.40590891 1.4115E-07 0.0000E+00 0.0000E+00 6.2832E-10 6.2832E-10 0.0000E+00 0.0000E+00 1.4178E-07 4.00E-07 4.18E-07   0.902 1.0000 9.8499E-07    265.757
 2074.00 0.13737994 2.3777E-07 0.0000E+00 0.0000E+00 2.1932E-10 2.1932E-10 0.0000E+00 0.0000E+00 2.3799E-07 1.36E-07 1.49E-07   1.985 1.0000 9.8788E-07    278.713
 2075.00 0.47944894 1.1554E-07 0.0000E+00 0.0000E+00 7.4237E-10 7.4237E-10 0.0000E+00 0.0000E+00 1.1628E-07 4.73E-07 4.94E-07   0.735 1.0000 9.8582E-07    261.331
 2076.00 0.58294058 7.6256E-08 0.0000E+00 0.0000E+00 8.9371E-10 8.9371E-10 0.0000E+00 0.0000E+00 7.7150E-08 5.77E-07 5.89E-07   0.540 1.0000 9.8933E-07    252.362
 2077.00 0.01264883 2.6776E-07 0.0000E+00 0.0000E+00 1.9708E-11 1.9708E-11 0.0000E+00 0.0000E+00 2.6778E-07 1.25E-08 1.29E-08   4.370 1.0000 9.8675E-07    282.110
 2078.00 0.03024547 2.3914E-07 0.0000E+00 0.0000E+00 5.2389E-11 5.2389E-11 0.0000E+00 0.0000E+00 2.3919E-07 2.99E-08 3.58E-08   3.498 1.0000 9.8747E-07    279.231
 2079.00 0.19428965 1.8096E-07 0.0000E+00 0.0000E+00 3.1277E-10 3.1277E-10 0.0000E+00 0.0000E+00 1.8127E-07 1.92E-07 2.10E-07   1.638 1.0000 9.8613E-07    272.279
 2080.00 0.61934543 7.0812E-08 0.0000E+00 0.0000E+00 9.5337E-10 9.5337E-10 0.0000E+00 0.0000E+00 7.1765E-08 6.10E-07 6.30E-07   0.479 1.0000 9.8488E-07    251.190
 2081.00 0.57721180 6.7405E-08 0.0000E+00 0.0000E+00 8.8662E-10 8.8662E-10 0.0000E+00 0.0000E+00 6.8291E-08 5.68E-07 5.84E-07   0.550 1.0000 9.8437E-07    250.239
 2082.00 0.25932518 1.7267E-07 0.0000E+00 0.0000E+00 4.1082E-10 4.1082E-10 0.0000E+00 0.0000E+00 1.7308E-07 2.57E-07 2.74E-07   1.350 1.0000 9.9109E-07    271.422
 2083.00 0.73608869 3.9993E-08 0.0000E+00 0.0000E+00 1.1255E-09 1.1255E-09 0.0000E+00 0.0000E+00 4.1118E-08 7.29E-07 7.38E-07   0.306 1.0000 9.9016E-07    240.235
 2084.00 0.63824749 5.1344E-08 0.0000E+00 0.0000E+00 9.7271E-10 9.7271E-10 0.0000E+00 0.0000E+00 5.2317E-08 6.29E-07 6.37E-07   0.449 1.0000 9.8602E-07    245.053
 2085.00 0.62477100 5.7811E-08 0.0000E+00 0.0000E+00 9.6055E-10 9.6055E-10 0.0000E+00 0.0000E+00 5.8771E-08 6.19E-07 6.30E-07   0.470 1.0000 9.9047E-07    247.495
 2086.00 0.55611151 7.5370E-08 0.0000E+00 0.0000E+00 8.5959E-10 8.5959E-10 0.0000E+00 0.0000E+00 7.6230E-08 5.54E-07 5.64E-07   0.587 1.0000 9.9667E-07    253.013
 2087.00 0.30397546 1.6788E-07 0.0000E+00 0.0000E+00 4.7630E-10 4.7630E-10 0.0000E+00 0.0000E+00 1.6836E-07 3.01E-07 3.18E-07   1.191 1.0000 9.8943E-07    271.217
 2088.00 0.46926650 1.1215E-07 0.0000E+00 0.0000E+00 7.3006E-10 7.3006E-10 0.0000E+00 0.0000E+00 1.1288E-07 4.66E-07 4.85E-07   0.757 1.0000 9.9243E-07    261.858
 2089.00 0.41890222 1.2080E-07 0.0000E+00 0.0000E+00 6.6188E-10 6.6188E-10 0.0000E+00 0.0000E+00 1.2147E-07 4.19E-07 4.41E-07   0.870 1.0000 9.9915E-07    263.635
 2090.00 0.01628946 2.8526E-07 0.0000E+00 0.0000E+00 2.8332E-11 2.8332E-11 0.0000E+00 0.0000E+00 2.8529E-07 1.62E-08 2.05E-08   4.117 1.0000 9.9554E-07    285.076
 2091.00 0.33490869 1.4508E-07 0.0000E+00 0.0000E+00 5.2424E-10 5.2424E-10 0.0000E+00 0.0000E+00 1.4561E-07 3.32E-07 3.49E-07   1.094 1.0000 9.9088E-07    268.082
 2092.00 0.59269738 6.5245E-08 0.0000E+00 0.0000E+00 9.1791E-10 9.1791E-10 0.0000E+00 0.0000E+00 6.6163E-08 5.90E-07 6.02E-07   0.523 1.0000 9.9564E-07    250.567
 2093.00 0.50318956 8.9640E-08 0.0000E+00 0.0000E+00 7.7734E-10 7.7734E-10 0.0000E+00 0.0000E+00 9.0418E-08 5.00E-07 5.11E-07   0.687 1.0000 9.9450E-07    257.347
 2094.00 0.45968270 8.6853E-08 0.0000E+00 0.0000E+00 7.2317E-10 7.2317E-10 0.0000E+00 0.0000E+00 8.7576E-08 4.57E-07 4.76E-07   0.777 1.0000 9.9357E-07    256.738
 2095.00 0.43450391 1.0066E-07 0.0000E+00 0.0000E+00 6.7636E-10 6.7636E-10 0.0000E+00 0.0000E+00 1.0134E-07 4.34E-07 4.43E-07   0.834 1.0000 9.9874E-07    260.063
 2096.00 0.71429414 3.7407E-08 0.0000E+00 0.0000E+00 1.1010E-09 1.1010E-09 0.0000E+00 0.0000E+00 3.8508E-08 7.15E-07 7.16E-07   0.336 1.0000 1.0010E-06    240.113
 2097.00 0.43469107 1.1538E-07 0.0000E+00 0.0000E+00 6.6681E-10 6.6681E-10 0.0000E+00 0.0000E+00 1.1605E-07 4.35E-07 4.34E-07   0.833 1.0000 1.0009E-06    263.326
 2098.00 0.65322882 5.2845E-08 0.0000E+00 0.0000E+00 1.0172E-09 1.0172E-09 0.0000E+00 0.0000E+00 5.3862E-08 6.57E-07 6.63E-07   0.426 1.0000 1.0053E-06    246.882
 2099.00 0.48589766 7.9042E-08 0.0000E+00 0.0000E+00 7.5081E-10 7.5081E-10 0.0000E+00 0.0000E+00 7.9793E-08 4.89E-07 4.86E-07   0.722 1.0000 1.0059E-06    255.171
 2100.00 0.44108412 1.1911E-07 0.0000E+00 0.0000E+00 6.9484E-10 6.9484E-10 0.0000E+00 0.0000E+00 1.1980E-07 4.44E-07 4.55E-07   0.819 1.0000 1.0071E-06    264.338
 -9999.
