T F 6    2    2    1    6    6    6    6    6    6    1    0    0 300.000   0.00
    1    1    1    0    0    0  23.00000   0.00000   0.00000   0.00000   0.00000
 -99.000 -99.000 -99.000
 -99.00000 -99.00000 -99.00000  1.416445  0.000736 ! H2O & O3 COLUMNS [GM/CM2]
   361976 U S STANDARD   
   2.00000  10.00000  30.00000   9.23590   0.04147   0.00000    0        0.00000
    0    0    1    0
  25.00000   0.00000  23.00000  45.00000   0.00000   0.00000   0.00000   0.00000
    2050.0    2100.0       1.0       1.0NW              
    0   0    0.000  0    0.000  0    1.000
    FREQ  TOT_TRANS  PTH_THRML  THRML_SCT  SURF_EMIS   SOL_SCAT  SING_SCAT  GRND_RFLT  DRCT_RFLT  TOTAL_RAD  REF_SOL  SOL@OBS   DEPTH DIR_EM    TOA_SUN BBODY_T[K]
 2050.00 0.88372636 1.5902E-08 5.4204E-10 4.8713E-07 2.0005E-10 1.9724E-10 0.0000E+00 0.0000E+00 5.0323E-07 8.27E-07 8.13E-07   0.124 1.0000 9.6338E-07    297.246
 2051.00 0.74512768 3.7278E-08 7.4651E-10 4.0936E-07 1.6775E-10 1.6479E-10 0.0000E+00 0.0000E+00 4.4681E-07 6.94E-07 6.78E-07   0.294 1.0000 9.6265E-07    293.827
 2052.00 0.67209369 4.6082E-08 6.8159E-10 3.6801E-07 1.4691E-10 1.4460E-10 0.0000E+00 0.0000E+00 4.1424E-07 6.13E-07 5.94E-07   0.397 1.0000 9.6431E-07    291.729
 2053.00 0.85615265 2.0929E-08 6.1923E-10 4.6723E-07 1.9509E-10 1.9228E-10 0.0000E+00 0.0000E+00 4.8836E-07 8.07E-07 7.91E-07   0.155 1.0000 9.6276E-07    296.653
 2054.00 0.66982752 4.8050E-08 6.8725E-10 3.6433E-07 1.4816E-10 1.4588E-10 0.0000E+00 0.0000E+00 4.1253E-07 6.16E-07 5.99E-07   0.401 1.0000 9.6369E-07    291.810
 2055.00 0.62976384 5.2240E-08 7.0653E-10 3.4140E-07 1.3772E-10 1.3550E-10 0.0000E+00 0.0000E+00 3.9378E-07 5.77E-07 5.55E-07   0.462 1.0000 9.6938E-07    290.575
 2056.00 0.88016242 1.5742E-08 5.3328E-10 4.7555E-07 2.0252E-10 1.9961E-10 0.0000E+00 0.0000E+00 4.9150E-07 8.37E-07 8.20E-07   0.128 1.0000 9.7361E-07    297.147
 2057.00 0.64221376 5.0192E-08 7.2646E-10 3.4583E-07 1.4099E-10 1.3857E-10 0.0000E+00 0.0000E+00 3.9617E-07 5.88E-07 5.68E-07   0.443 1.0000 9.6927E-07    290.948
 2058.00 0.62197429 5.3258E-08 7.2146E-10 3.3382E-07 1.3547E-10 1.3325E-10 0.0000E+00 0.0000E+00 3.8721E-07 5.69E-07 5.45E-07   0.475 1.0000 9.6927E-07    290.395
 2059.00 0.80275697 2.8059E-08 5.2036E-10 4.2941E-07 1.8182E-10 1.7972E-10 0.0000E+00 0.0000E+00 4.5765E-07 7.59E-07 7.34E-07   0.220 1.0000 9.7630E-07    295.334
 2060.00 0.30290845 1.1851E-07 9.3121E-10 1.6149E-07 6.3374E-11 6.2522E-11 0.0000E+00 0.0000E+00 2.8006E-07 2.76E-07 2.52E-07   1.194 1.0000 9.7434E-07    281.648
 2061.00 0.43450198 8.9427E-08 7.6252E-10 2.3088E-07 9.1688E-11 9.0585E-11 0.0000E+00 0.0000E+00 3.2039E-07 3.96E-07 3.66E-07   0.834 1.0000 9.7289E-07    285.394
 2062.00 0.80876023 2.5998E-08 5.0347E-10 4.2831E-07 1.8027E-10 1.7816E-10 0.0000E+00 0.0000E+00 4.5448E-07 7.53E-07 7.27E-07   0.212 1.0000 9.7506E-07    295.432
 2063.00 0.55065292 6.3499E-08 6.0556E-10 2.9064E-07 1.1639E-10 1.1510E-10 0.0000E+00 0.0000E+00 3.5426E-07 4.97E-07 4.67E-07   0.597 1.0000 9.7816E-07    288.379
 2064.00 0.42690995 8.9974E-08 6.4765E-10 2.2458E-07 9.0321E-11 8.9491E-11 0.0000E+00 0.0000E+00 3.1464E-07 3.90E-07 3.60E-07   0.851 1.0000 9.7785E-07    285.193
 2065.00 0.07451376 1.7385E-07 5.9999E-10 3.9068E-08 1.5075E-11 1.4983E-11 0.0000E+00 0.0000E+00 2.1294E-07 7.02E-08 5.79E-08   2.597 1.0000 9.7951E-07    274.982
 2066.00 0.15529206 1.4837E-07 6.9953E-10 8.1148E-08 3.0724E-11 3.0495E-11 0.0000E+00 0.0000E+00 2.2955E-07 1.38E-07 1.21E-07   1.862 1.0000 9.8271E-07    277.004
 2067.00 0.76305932 3.3573E-08 4.9291E-10 3.9741E-07 1.6932E-10 1.6763E-10 0.0000E+00 0.0000E+00 4.3115E-07 7.07E-07 6.81E-07   0.270 1.0000 9.8199E-07    294.390
 2068.00 0.69667166 4.1791E-08 6.6155E-10 3.6162E-07 1.5303E-10 1.5071E-10 0.0000E+00 0.0000E+00 4.0356E-07 6.35E-07 6.13E-07   0.361 1.0000 9.8437E-07    292.575
 2069.00 0.59509641 4.9868E-08 5.5541E-10 3.0786E-07 1.2134E-10 1.1988E-10 0.0000E+00 0.0000E+00 3.5785E-07 5.12E-07 4.87E-07   0.519 1.0000 9.8344E-07    289.257
 2070.00 0.86654007 1.6113E-08 5.0858E-10 4.4679E-07 1.8948E-10 1.8678E-10 0.0000E+00 0.0000E+00 4.6309E-07 7.79E-07 7.61E-07   0.143 1.0000 9.8551E-07    296.789
 2071.00 0.72158259 3.3419E-08 5.7466E-10 3.7081E-07 1.4824E-10 1.4603E-10 0.0000E+00 0.0000E+00 4.0437E-07 6.14E-07 5.94E-07   0.326 1.0000 9.7971E-07    292.932
 2072.00 0.70457417 3.4852E-08 5.2054E-10 3.6086E-07 1.4445E-10 1.4284E-10 0.0000E+00 0.0000E+00 3.9585E-07 6.03E-07 5.80E-07   0.350 1.0000 9.8447E-07    292.420
 2073.00 0.64198214 5.1244E-08 7.2815E-10 3.2770E-07 1.3958E-10 1.3743E-10 0.0000E+00 0.0000E+00 3.7908E-07 5.83E-07 5.56E-07   0.443 1.0000 9.8499E-07    291.283
 2074.00 0.35114235 1.0523E-07 1.0187E-09 1.7864E-07 7.1182E-11 6.9869E-11 0.0000E+00 0.0000E+00 2.8394E-07 3.03E-07 2.79E-07   1.047 1.0000 9.8788E-07    283.386
 2075.00 0.75196707 3.3466E-08 5.6557E-10 3.8128E-07 1.6077E-10 1.5885E-10 0.0000E+00 0.0000E+00 4.1491E-07 6.68E-07 6.43E-07   0.285 1.0000 9.8582E-07    294.074
 2076.00 0.78516251 2.5483E-08 4.9907E-10 3.9678E-07 1.6650E-10 1.6439E-10 0.0000E+00 0.0000E+00 4.2243E-07 6.95E-07 6.66E-07   0.242 1.0000 9.8933E-07    294.695
 2077.00 0.04303745 1.5329E-07 5.0123E-10 2.1676E-08 5.0318E-12 5.0052E-12 0.0000E+00 0.0000E+00 1.7497E-07 2.69E-08 1.93E-08   3.146 1.0000 9.8675E-07    271.214
 2078.00 0.11200044 1.2578E-07 4.5548E-10 5.6221E-08 1.4539E-11 1.4471E-11 0.0000E+00 0.0000E+00 1.8202E-07 6.80E-08 5.73E-08   2.189 1.0000 9.8747E-07    272.285
 2079.00 0.41576263 7.8975E-08 7.9926E-10 2.0800E-07 7.0706E-11 6.9634E-11 0.0000E+00 0.0000E+00 2.8705E-07 3.05E-07 2.79E-07   0.878 1.0000 9.8613E-07    284.168
 2080.00 0.82824165 2.0880E-08 4.9741E-10 4.1297E-07 1.7890E-10 1.7660E-10 0.0000E+00 0.0000E+00 4.3403E-07 7.35E-07 7.15E-07   0.188 1.0000 9.8488E-07    295.886
 2081.00 0.79231256 2.3172E-08 5.0963E-10 3.9374E-07 1.5861E-10 1.5663E-10 0.0000E+00 0.0000E+00 4.1707E-07 6.55E-07 6.34E-07   0.233 1.0000 9.8437E-07    294.824
 2082.00 0.49709526 6.9464E-08 7.8373E-10 2.4620E-07 9.7804E-11 9.6282E-11 0.0000E+00 0.0000E+00 3.1576E-07 4.12E-07 3.86E-07   0.699 1.0000 9.9109E-07    287.060
 2083.00 0.91432893 1.0151E-08 4.9593E-10 4.5133E-07 1.9572E-10 1.9275E-10 0.0000E+00 0.0000E+00 4.6168E-07 7.96E-07 7.81E-07   0.090 1.0000 9.9016E-07    298.004
 2084.00 0.82781166 1.8370E-08 5.1639E-10 4.0726E-07 1.6694E-10 1.6471E-10 0.0000E+00 0.0000E+00 4.2579E-07 6.88E-07 6.66E-07   0.189 1.0000 9.8602E-07    295.726
 2085.00 0.82681674 1.9049E-08 5.1169E-10 4.0540E-07 1.7017E-10 1.6790E-10 0.0000E+00 0.0000E+00 4.2462E-07 6.99E-07 6.78E-07   0.190 1.0000 9.9047E-07    295.746
 2086.00 0.78151208 2.5862E-08 5.5214E-10 3.8191E-07 1.5639E-10 1.5445E-10 0.0000E+00 0.0000E+00 4.0792E-07 6.48E-07 6.22E-07   0.247 1.0000 9.9667E-07    294.680
 2087.00 0.56201231 6.5530E-08 1.2461E-09 2.7372E-07 1.1464E-10 1.1099E-10 0.0000E+00 0.0000E+00 3.3937E-07 4.67E-07 4.45E-07   0.576 1.0000 9.8943E-07    289.550
 2088.00 0.80749685 2.6701E-08 5.7004E-10 3.9196E-07 1.6282E-10 1.6047E-10 0.0000E+00 0.0000E+00 4.1883E-07 6.70E-07 6.45E-07   0.214 1.0000 9.9243E-07    295.645
 2089.00 0.75715601 3.1336E-08 5.0001E-10 3.6629E-07 1.5165E-10 1.5004E-10 0.0000E+00 0.0000E+00 3.9778E-07 6.29E-07 6.02E-07   0.278 1.0000 9.9915E-07    294.252
 2090.00 0.14340556 1.4281E-07 7.6153E-10 6.9143E-08 2.7251E-11 2.6932E-11 0.0000E+00 0.0000E+00 2.1198E-07 1.20E-07 1.05E-07   1.942 1.0000 9.9554E-07    277.270
 2091.00 0.66837615 4.4134E-08 5.4477E-10 3.2118E-07 1.2910E-10 1.2766E-10 0.0000E+00 0.0000E+00 3.6544E-07 5.41E-07 5.10E-07   0.403 1.0000 9.9088E-07    292.027
 2092.00 0.86795127 1.5730E-08 4.7031E-10 4.1568E-07 1.7104E-10 1.6880E-10 0.0000E+00 0.0000E+00 4.3158E-07 7.04E-07 6.78E-07   0.142 1.0000 9.9564E-07    296.920
 2093.00 0.77005321 2.8604E-08 5.7023E-10 3.6756E-07 1.5101E-10 1.4886E-10 0.0000E+00 0.0000E+00 3.9631E-07 6.24E-07 5.97E-07   0.261 1.0000 9.9450E-07    294.543
 2094.00 0.72018737 3.0915E-08 4.7319E-10 3.4260E-07 1.3499E-10 1.3347E-10 0.0000E+00 0.0000E+00 3.7365E-07 5.62E-07 5.35E-07   0.328 1.0000 9.9357E-07    292.956
 2095.00 0.69213855 3.6402E-08 5.4554E-10 3.2815E-07 1.3100E-10 1.2933E-10 0.0000E+00 0.0000E+00 3.6469E-07 5.49E-07 5.16E-07   0.368 1.0000 9.9874E-07    292.365
 2096.00 0.92273301 8.7845E-09 4.7200E-10 4.3601E-07 1.9011E-10 1.8722E-10 0.0000E+00 0.0000E+00 4.4499E-07 7.75E-07 7.52E-07   0.080 1.0000 1.0010E-06    298.219
 2097.00 0.70722014 4.1906E-08 1.2531E-09 3.3305E-07 1.3576E-10 1.3064E-10 0.0000E+00 0.0000E+00 3.7510E-07 5.53E-07 5.20E-07   0.346 1.0000 1.0009E-06    293.363
 2098.00 0.89757204 1.2414E-08 4.9430E-10 4.2128E-07 1.8402E-10 1.8132E-10 0.0000E+00 0.0000E+00 4.3388E-07 7.50E-07 7.27E-07   0.108 1.0000 1.0053E-06    297.675
 2099.00 0.71881419 3.1709E-08 5.8059E-10 3.3624E-07 1.3278E-10 1.3067E-10 0.0000E+00 0.0000E+00 3.6808E-07 5.56E-07 5.21E-07   0.330 1.0000 1.0059E-06    293.024
 2100.00 0.69824618 4.2926E-08 1.2293E-09 3.2552E-07 1.4572E-10 1.4032E-10 0.0000E+00 0.0000E+00 3.6860E-07 5.84E-07 5.60E-07   0.359 1.0000 1.0071E-06    293.162
 -9999.
