T F 6    2    2    0    6    6    6    6    6    6    1    0    0 300.000   0.00
    1    1    1    0    0    0  23.00000   0.00000   0.00000   0.00000   0.00000
 -99.000 -99.000 -99.000
 -99.00000 -99.00000 -99.00000  1.416445  0.000736 ! H2O & O3 COLUMNS [GM/CM2]
   361976 U S STANDARD   
   2.00000  10.00000  30.00000   9.23590   0.04147   0.00000    0        0.00000
    0    0    1    0
  25.00000   0.00000  23.00000  45.00000   0.00000   0.00000   0.00000   0.00000
    2050.0    2100.0       1.0       1.0NW              
    0   0    0.000  0    0.000  0    1.000
    FREQ  TOT_TRANS  PTH_THRML  THRML_SCT  SURF_EMIS   SOL_SCAT  SING_SCAT  GRND_RFLT  DRCT_RFLT  TOTAL_RAD  REF_SOL  SOL@OBS   DEPTH DIR_EM    TOA_SUN BBODY_T[K]
 2050.00 0.88372636 1.5936E-08 0.0000E+00 4.8713E-07 1.9724E-10 1.9724E-10 0.0000E+00 0.0000E+00 5.0326E-07 8.27E-07 8.13E-07   0.124 1.0000 9.6338E-07    297.248
 2051.00 0.74512768 3.7338E-08 0.0000E+00 4.0936E-07 1.6479E-10 1.6479E-10 0.0000E+00 0.0000E+00 4.4687E-07 6.94E-07 6.78E-07   0.294 1.0000 9.6265E-07    293.831
 2052.00 0.67209369 4.6127E-08 0.0000E+00 3.6801E-07 1.4460E-10 1.4460E-10 0.0000E+00 0.0000E+00 4.1428E-07 6.13E-07 5.94E-07   0.397 1.0000 9.6431E-07    291.732
 2053.00 0.85615265 2.0977E-08 0.0000E+00 4.6723E-07 1.9228E-10 1.9228E-10 0.0000E+00 0.0000E+00 4.8840E-07 8.07E-07 7.91E-07   0.155 1.0000 9.6276E-07    296.656
 2054.00 0.66982752 4.8105E-08 0.0000E+00 3.6433E-07 1.4588E-10 1.4588E-10 0.0000E+00 0.0000E+00 4.1258E-07 6.16E-07 5.99E-07   0.401 1.0000 9.6369E-07    291.814
 2055.00 0.62976384 5.2288E-08 0.0000E+00 3.4140E-07 1.3550E-10 1.3550E-10 0.0000E+00 0.0000E+00 3.9382E-07 5.77E-07 5.55E-07   0.462 1.0000 9.6938E-07    290.579
 2056.00 0.88016242 1.5772E-08 0.0000E+00 4.7555E-07 1.9961E-10 1.9961E-10 0.0000E+00 0.0000E+00 4.9152E-07 8.37E-07 8.20E-07   0.128 1.0000 9.7361E-07    297.149
 2057.00 0.64221376 5.0241E-08 0.0000E+00 3.4583E-07 1.3857E-10 1.3857E-10 0.0000E+00 0.0000E+00 3.9621E-07 5.88E-07 5.68E-07   0.443 1.0000 9.6927E-07    290.951
 2058.00 0.62197429 5.3309E-08 0.0000E+00 3.3382E-07 1.3325E-10 1.3325E-10 0.0000E+00 0.0000E+00 3.8726E-07 5.69E-07 5.45E-07   0.475 1.0000 9.6927E-07    290.398
 2059.00 0.80275697 2.8101E-08 0.0000E+00 4.2941E-07 1.7972E-10 1.7972E-10 0.0000E+00 0.0000E+00 4.5769E-07 7.59E-07 7.34E-07   0.220 1.0000 9.7630E-07    295.337
 2060.00 0.30290845 1.1863E-07 0.0000E+00 1.6149E-07 6.2522E-11 6.2522E-11 0.0000E+00 0.0000E+00 2.8018E-07 2.76E-07 2.52E-07   1.194 1.0000 9.7434E-07    281.660
 2061.00 0.43450198 8.9521E-08 0.0000E+00 2.3088E-07 9.0585E-11 9.0585E-11 0.0000E+00 0.0000E+00 3.2049E-07 3.96E-07 3.66E-07   0.834 1.0000 9.7289E-07    285.402
 2062.00 0.80876023 2.6035E-08 0.0000E+00 4.2831E-07 1.7816E-10 1.7816E-10 0.0000E+00 0.0000E+00 4.5452E-07 7.53E-07 7.27E-07   0.212 1.0000 9.7506E-07    295.434
 2063.00 0.55065292 6.3547E-08 0.0000E+00 2.9064E-07 1.1510E-10 1.1510E-10 0.0000E+00 0.0000E+00 3.5431E-07 4.97E-07 4.67E-07   0.597 1.0000 9.7816E-07    288.383
 2064.00 0.42690995 9.0058E-08 0.0000E+00 2.2458E-07 8.9491E-11 8.9491E-11 0.0000E+00 0.0000E+00 3.1473E-07 3.90E-07 3.60E-07   0.851 1.0000 9.7785E-07    285.200
 2065.00 0.07451376 1.7391E-07 0.0000E+00 3.9068E-08 1.4983E-11 1.4983E-11 0.0000E+00 0.0000E+00 2.1300E-07 7.02E-08 5.79E-08   2.597 1.0000 9.7951E-07    274.989
 2066.00 0.15529206 1.4845E-07 0.0000E+00 8.1148E-08 3.0495E-11 3.0495E-11 0.0000E+00 0.0000E+00 2.2963E-07 1.38E-07 1.21E-07   1.862 1.0000 9.8271E-07    277.013
 2067.00 0.76305932 3.3619E-08 0.0000E+00 3.9741E-07 1.6763E-10 1.6763E-10 0.0000E+00 0.0000E+00 4.3119E-07 7.07E-07 6.81E-07   0.270 1.0000 9.8199E-07    294.393
 2068.00 0.69667166 4.1843E-08 0.0000E+00 3.6162E-07 1.5071E-10 1.5071E-10 0.0000E+00 0.0000E+00 4.0361E-07 6.35E-07 6.13E-07   0.361 1.0000 9.8437E-07    292.579
 2069.00 0.59509641 4.9888E-08 0.0000E+00 3.0786E-07 1.1988E-10 1.1988E-10 0.0000E+00 0.0000E+00 3.5787E-07 5.12E-07 4.87E-07   0.519 1.0000 9.8344E-07    289.258
 2070.00 0.86654007 1.6137E-08 0.0000E+00 4.4679E-07 1.8678E-10 1.8678E-10 0.0000E+00 0.0000E+00 4.6311E-07 7.79E-07 7.61E-07   0.143 1.0000 9.8551E-07    296.790
 2071.00 0.72158259 3.3440E-08 0.0000E+00 3.7081E-07 1.4603E-10 1.4603E-10 0.0000E+00 0.0000E+00 4.0439E-07 6.14E-07 5.94E-07   0.326 1.0000 9.7971E-07    292.934
 2072.00 0.70457417 3.4874E-08 0.0000E+00 3.6086E-07 1.4284E-10 1.4284E-10 0.0000E+00 0.0000E+00 3.9587E-07 6.03E-07 5.80E-07   0.350 1.0000 9.8447E-07    292.421
 2073.00 0.64198214 5.1318E-08 0.0000E+00 3.2770E-07 1.3743E-10 1.3743E-10 0.0000E+00 0.0000E+00 3.7916E-07 5.83E-07 5.56E-07   0.443 1.0000 9.8499E-07    291.288
 2074.00 0.35114235 1.0538E-07 0.0000E+00 1.7864E-07 6.9869E-11 6.9869E-11 0.0000E+00 0.0000E+00 2.8409E-07 3.03E-07 2.79E-07   1.047 1.0000 9.8788E-07    283.400
 2075.00 0.75196707 3.3515E-08 0.0000E+00 3.8128E-07 1.5885E-10 1.5885E-10 0.0000E+00 0.0000E+00 4.1495E-07 6.68E-07 6.43E-07   0.285 1.0000 9.8582E-07    294.077
 2076.00 0.78516251 2.5505E-08 0.0000E+00 3.9678E-07 1.6439E-10 1.6439E-10 0.0000E+00 0.0000E+00 4.2245E-07 6.95E-07 6.66E-07   0.242 1.0000 9.8933E-07    294.697
 2077.00 0.04303745 1.5330E-07 0.0000E+00 2.1676E-08 5.0052E-12 5.0052E-12 0.0000E+00 0.0000E+00 1.7498E-07 2.69E-08 1.93E-08   3.146 1.0000 9.8675E-07    271.215
 2078.00 0.11200044 1.2579E-07 0.0000E+00 5.6221E-08 1.4471E-11 1.4471E-11 0.0000E+00 0.0000E+00 1.8202E-07 6.80E-08 5.73E-08   2.189 1.0000 9.8747E-07    272.286
 2079.00 0.41576263 7.9026E-08 0.0000E+00 2.0800E-07 6.9634E-11 6.9634E-11 0.0000E+00 0.0000E+00 2.8710E-07 3.05E-07 2.79E-07   0.878 1.0000 9.8613E-07    284.172
 2080.00 0.82824165 2.0906E-08 0.0000E+00 4.1297E-07 1.7660E-10 1.7660E-10 0.0000E+00 0.0000E+00 4.3406E-07 7.35E-07 7.15E-07   0.188 1.0000 9.8488E-07    295.887
 2081.00 0.79231256 2.3190E-08 0.0000E+00 3.9374E-07 1.5663E-10 1.5663E-10 0.0000E+00 0.0000E+00 4.1708E-07 6.55E-07 6.34E-07   0.233 1.0000 9.8437E-07    294.825
 2082.00 0.49709526 6.9541E-08 0.0000E+00 2.4620E-07 9.6282E-11 9.6282E-11 0.0000E+00 0.0000E+00 3.1584E-07 4.12E-07 3.86E-07   0.699 1.0000 9.9109E-07    287.066
 2083.00 0.91432893 1.0173E-08 0.0000E+00 4.5133E-07 1.9275E-10 1.9275E-10 0.0000E+00 0.0000E+00 4.6170E-07 7.96E-07 7.81E-07   0.090 1.0000 9.9016E-07    298.006
 2084.00 0.82781166 1.8386E-08 0.0000E+00 4.0726E-07 1.6471E-10 1.6471E-10 0.0000E+00 0.0000E+00 4.2581E-07 6.88E-07 6.66E-07   0.189 1.0000 9.8602E-07    295.727
 2085.00 0.82681674 1.9069E-08 0.0000E+00 4.0540E-07 1.6790E-10 1.6790E-10 0.0000E+00 0.0000E+00 4.2464E-07 6.99E-07 6.78E-07   0.190 1.0000 9.9047E-07    295.747
 2086.00 0.78151208 2.5888E-08 0.0000E+00 3.8191E-07 1.5445E-10 1.5445E-10 0.0000E+00 0.0000E+00 4.0795E-07 6.48E-07 6.22E-07   0.247 1.0000 9.9667E-07    294.682
 2087.00 0.56201231 6.5704E-08 0.0000E+00 2.7372E-07 1.1099E-10 1.1099E-10 0.0000E+00 0.0000E+00 3.3954E-07 4.67E-07 4.45E-07   0.576 1.0000 9.8943E-07    289.564
 2088.00 0.80749685 2.6758E-08 0.0000E+00 3.9196E-07 1.6047E-10 1.6047E-10 0.0000E+00 0.0000E+00 4.1888E-07 6.70E-07 6.45E-07   0.214 1.0000 9.9243E-07    295.649
 2089.00 0.75715601 3.1381E-08 0.0000E+00 3.6629E-07 1.5004E-10 1.5004E-10 0.0000E+00 0.0000E+00 3.9782E-07 6.29E-07 6.02E-07   0.278 1.0000 9.9915E-07    294.255
 2090.00 0.14340556 1.4293E-07 0.0000E+00 6.9143E-08 2.6932E-11 2.6932E-11 0.0000E+00 0.0000E+00 2.1210E-07 1.20E-07 1.05E-07   1.942 1.0000 9.9554E-07    277.284
 2091.00 0.66837615 4.4190E-08 0.0000E+00 3.2118E-07 1.2766E-10 1.2766E-10 0.0000E+00 0.0000E+00 3.6550E-07 5.41E-07 5.10E-07   0.403 1.0000 9.9088E-07    292.032
 2092.00 0.86795127 1.5756E-08 0.0000E+00 4.1568E-07 1.6880E-10 1.6880E-10 0.0000E+00 0.0000E+00 4.3161E-07 7.04E-07 6.78E-07   0.142 1.0000 9.9564E-07    296.922
 2093.00 0.77005321 2.8642E-08 0.0000E+00 3.6756E-07 1.4886E-10 1.4886E-10 0.0000E+00 0.0000E+00 3.9635E-07 6.24E-07 5.97E-07   0.261 1.0000 9.9450E-07    294.546
 2094.00 0.72018737 3.0931E-08 0.0000E+00 3.4260E-07 1.3347E-10 1.3347E-10 0.0000E+00 0.0000E+00 3.7367E-07 5.62E-07 5.35E-07   0.328 1.0000 9.9357E-07    292.957
 2095.00 0.69213855 3.6432E-08 0.0000E+00 3.2815E-07 1.2933E-10 1.2933E-10 0.0000E+00 0.0000E+00 3.6471E-07 5.49E-07 5.16E-07   0.368 1.0000 9.9874E-07    292.367
 2096.00 0.92273301 8.8027E-09 0.0000E+00 4.3601E-07 1.8722E-10 1.8722E-10 0.0000E+00 0.0000E+00 4.4500E-07 7.75E-07 7.52E-07   0.080 1.0000 1.0010E-06    298.220
 2097.00 0.70722014 4.2056E-08 0.0000E+00 3.3305E-07 1.3064E-10 1.3064E-10 0.0000E+00 0.0000E+00 3.7524E-07 5.53E-07 5.20E-07   0.346 1.0000 1.0009E-06    293.374
 2098.00 0.89757204 1.2439E-08 0.0000E+00 4.2128E-07 1.8132E-10 1.8132E-10 0.0000E+00 0.0000E+00 4.3390E-07 7.50E-07 7.27E-07   0.108 1.0000 1.0053E-06    297.676
 2099.00 0.71881419 3.1732E-08 0.0000E+00 3.3624E-07 1.3067E-10 1.3067E-10 0.0000E+00 0.0000E+00 3.6811E-07 5.56E-07 5.21E-07   0.330 1.0000 1.0059E-06    293.025
 2100.00 0.69824618 4.3078E-08 0.0000E+00 3.2552E-07 1.4032E-10 1.4032E-10 0.0000E+00 0.0000E+00 3.6874E-07 5.84E-07 5.60E-07   0.359 1.0000 1.0071E-06    293.174
 -9999.
