T F 6    2    1    1    6    6    6    6    6    6    1    0    0   0.000   0.00
    1    1    1    0    0    0  23.00000   0.00000   0.00000   0.00000   0.00000
 -99.000 -99.000 -99.000
 -99.00000 -99.00000 -99.00000  1.416445  0.000736 ! H2O & O3 COLUMNS [GM/CM2]
   361976 U S STANDARD   
   2.00000  10.00000  30.00000   9.23590   0.04147   0.00000    0        0.00000
  -99  -99  -99  -99
 -99.00000 -99.00000 -99.00000 -99.00000 -99.00000 -99.00000 -99.00000 -99.00000
    2050.0    2100.0       1.0       1.0NW              
    0   0    0.000  0    0.000  0    1.000
    FREQ  TOT_TRANS  PTH_THRML  THRML_SCT  SURF_EMIS   SOL_SCAT  SING_SCAT  GRND_RFLT  DRCT_RFLT  TOTAL_RAD  REF_SOL  SOL@OBS   DEPTH DIR_EM    TOA_SUN BBODY_T[K]
 2050.00 0.88372636 1.5616E-08            0.0000E+00                       0.0000E+00            1.5616E-08                     0.124 1.0000               220.187
 2051.00 0.74512768 3.6946E-08            0.0000E+00                       0.0000E+00            3.6946E-08                     0.294 1.0000               235.402
 2052.00 0.67209369 4.5822E-08            0.0000E+00                       0.0000E+00            4.5822E-08                     0.397 1.0000               239.604
 2053.00 0.85615265 2.0605E-08            0.0000E+00                       0.0000E+00            2.0605E-08                     0.155 1.0000               225.094
 2054.00 0.66982752 4.7881E-08            0.0000E+00                       0.0000E+00            4.7881E-08                     0.401 1.0000               240.639
 2055.00 0.62976384 5.2071E-08            0.0000E+00                       0.0000E+00            5.2071E-08                     0.462 1.0000               242.383
 2056.00 0.88016242 1.5413E-08            0.0000E+00                       0.0000E+00            1.5413E-08                     0.128 1.0000               220.472
 2057.00 0.64221376 4.9930E-08            0.0000E+00                       0.0000E+00            4.9930E-08                     0.443 1.0000               241.729
 2058.00 0.62197429 5.3089E-08            0.0000E+00                       0.0000E+00            5.3089E-08                     0.475 1.0000               243.035
 2059.00 0.80275697 2.7896E-08            0.0000E+00                       0.0000E+00            2.7896E-08                     0.220 1.0000               230.929
 2060.00 0.30290845 1.1779E-07            0.0000E+00                       0.0000E+00            1.1779E-07                     1.194 1.0000               260.230
 2061.00 0.43450198 8.9252E-08            0.0000E+00                       0.0000E+00            8.9252E-08                     0.834 1.0000               254.134
 2062.00 0.80876023 2.5859E-08            0.0000E+00                       0.0000E+00            2.5859E-08                     0.212 1.0000               229.829
 2063.00 0.55065292 6.3533E-08            0.0000E+00                       0.0000E+00            6.3533E-08                     0.597 1.0000               247.121
 2064.00 0.42690995 8.9918E-08            0.0000E+00                       0.0000E+00            8.9918E-08                     0.851 1.0000               254.571
 2065.00 0.07451376 1.7106E-07            0.0000E+00                       0.0000E+00            1.7106E-07                     2.597 1.0000               269.519
 2066.00 0.15529206 1.4714E-07            0.0000E+00                       0.0000E+00            1.4714E-07                     1.862 1.0000               265.981
 2067.00 0.76305932 3.3448E-08            0.0000E+00                       0.0000E+00            3.3448E-08                     0.270 1.0000               234.937
 2068.00 0.69667166 4.1657E-08            0.0000E+00                       0.0000E+00            4.1657E-08                     0.361 1.0000               239.170
 2069.00 0.59509641 4.9821E-08            0.0000E+00                       0.0000E+00            4.9821E-08                     0.519 1.0000               242.750
 2070.00 0.86654007 1.5867E-08            0.0000E+00                       0.0000E+00            1.5867E-08                     0.143 1.0000               222.117
 2071.00 0.72158259 3.3269E-08            0.0000E+00                       0.0000E+00            3.3269E-08                     0.326 1.0000               235.185
 2072.00 0.70457417 3.4702E-08            0.0000E+00                       0.0000E+00            3.4702E-08                     0.350 1.0000               236.057
 2073.00 0.64198214 5.1030E-08            0.0000E+00                       0.0000E+00            5.1030E-08                     0.443 1.0000               243.580
 2074.00 0.35114235 1.0441E-07            0.0000E+00                       0.0000E+00            1.0441E-07                     1.047 1.0000               258.797
 2075.00 0.75196707 3.3294E-08            0.0000E+00                       0.0000E+00            3.3294E-08                     0.285 1.0000               235.545
 2076.00 0.78516251 2.5311E-08            0.0000E+00                       0.0000E+00            2.5311E-08                     0.242 1.0000               230.643
 2077.00 0.04303745 1.5288E-07            0.0000E+00                       0.0000E+00            1.5288E-07                     3.146 1.0000               267.933
 2078.00 0.11200044 1.2612E-07            0.0000E+00                       0.0000E+00            1.2612E-07                     2.189 1.0000               263.482
 2079.00 0.41576263 7.8789E-08            0.0000E+00                       0.0000E+00            7.8789E-08                     0.878 1.0000               253.084
 2080.00 0.82824165 2.0709E-08            0.0000E+00                       0.0000E+00            2.0709E-08                     0.188 1.0000               227.462
 2081.00 0.79231256 2.2990E-08            0.0000E+00                       0.0000E+00            2.2990E-08                     0.233 1.0000               229.368
 2082.00 0.49709526 6.9246E-08            0.0000E+00                       0.0000E+00            6.9246E-08                     0.699 1.0000               250.620
 2083.00 0.91432893 9.8481E-09            0.0000E+00                       0.0000E+00            9.8481E-09                     0.090 1.0000               215.542
 2084.00 0.82781166 1.8111E-08            0.0000E+00                       0.0000E+00            1.8111E-08                     0.189 1.0000               225.504
 2085.00 0.82681674 1.8815E-08            0.0000E+00                       0.0000E+00            1.8815E-08                     0.190 1.0000               226.236
 2086.00 0.78151208 2.5663E-08            0.0000E+00                       0.0000E+00            2.5663E-08                     0.247 1.0000               231.744
 2087.00 0.56201231 6.4867E-08            0.0000E+00                       0.0000E+00            6.4867E-08                     0.576 1.0000               249.706
 2088.00 0.80749685 2.6439E-08            0.0000E+00                       0.0000E+00            2.6439E-08                     0.214 1.0000               232.449
 2089.00 0.75715601 3.1197E-08            0.0000E+00                       0.0000E+00            3.1197E-08                     0.278 1.0000               235.550
 2090.00 0.14340556 1.4072E-07            0.0000E+00                       0.0000E+00            1.4072E-07                     1.942 1.0000               267.175
 2091.00 0.66837615 4.4033E-08            0.0000E+00                       0.0000E+00            4.4033E-08                     0.403 1.0000               242.264
 2092.00 0.86795127 1.5524E-08            0.0000E+00                       0.0000E+00            1.5524E-08                     0.142 1.0000               223.584
 2093.00 0.77005321 2.8400E-08            0.0000E+00                       0.0000E+00            2.8400E-08                     0.261 1.0000               234.172
 2094.00 0.72018737 3.0802E-08            0.0000E+00                       0.0000E+00            3.0802E-08                     0.328 1.0000               235.746
 2095.00 0.69213855 3.6257E-08            0.0000E+00                       0.0000E+00            3.6257E-08                     0.368 1.0000               238.880
 2096.00 0.92273301 8.4874E-09            0.0000E+00                       0.0000E+00            8.4874E-09                     0.080 1.0000               214.308
 2097.00 0.70722014 4.1089E-08            0.0000E+00                       0.0000E+00            4.1089E-08                     0.346 1.0000               241.447
 2098.00 0.89757204 1.2125E-08            0.0000E+00                       0.0000E+00            1.2125E-08                     0.108 1.0000               220.046
 2099.00 0.71881419 3.1499E-08            0.0000E+00                       0.0000E+00            3.1499E-08                     0.330 1.0000               236.591
 2100.00 0.69824618 4.2165E-08            0.0000E+00                       0.0000E+00            4.2165E-08                     0.359 1.0000               242.210
 -9999.
